# This is the file MagProp_Novo_Hamiltoniano_Corrigido generated on Wed Dec 04 17:40:25 2024 using the program 'MagProp',
# written by Philip Tregenna-Piggott (philip.tregenna@psi.ch).
# The model details are as follows:
# Matrix dimension: 16
# P1 = 2.6015061
# P2 = 2.4900842
# P3 = 2.4616460
# P4 = -6.1226994 cm^-1
# P5 = -72.511417 cm^-1
# P6 = -45.757424 cm^-1
# P7 = -31.763643 cm^-1
# P8 = -15.520207 cm^-1
# Diamagnetism = -0.0006078536
Temperature   ChiT_Data      ChiT_Model      
  2.00060      5.23588        5.21410     
  2.18811      5.30990        5.31870     
  2.37561      5.40618        5.40607     
  2.56312      5.47750        5.48032     
  2.75063      5.53749        5.54441     
  2.93814      5.59756        5.60052     
  3.12564      5.64882        5.65027     
  3.31315      5.68768        5.69485     
  3.50066      5.72404        5.73519     
  3.68817      5.77032        5.77196     
  3.87567      5.80093        5.80570     
  4.06318      5.83651        5.83682     
  4.25069      5.86476        5.86564     
  4.43820      5.89054        5.89241     
  4.62570      5.91475        5.91732     
  4.81321      5.93981        5.94053     
  5.00072      5.96842        5.96218     
  5.18823      5.97797        5.98236     
  5.37573      6.00684        6.00117     
  5.56324      6.02115        6.01868     
  5.75075      6.03960        6.03496     
  5.93826      6.07062        6.05006     
  6.12576      6.06431        6.06404     
  6.31327      6.08507        6.07694     
  6.50078      6.08642        6.08880     
  6.68828      6.10521        6.09968     
  6.87579      6.11240        6.10960     
  7.06330      6.12543        6.11861     
  7.25081      6.12664        6.12674     
  7.43831      6.13933        6.13402     
  7.62582      6.14104        6.14051     
  7.81333      6.14515        6.14622     
  8.00084      6.15665        6.15119     
  8.18834      6.15665        6.15545     
  8.37585      6.16344        6.15905     
  8.56336      6.16289        6.16200     
  8.75087      6.16445        6.16435     
  8.93837      6.16071        6.16611     
  9.12588      6.16247        6.16732     
  9.31339      6.17214        6.16802     
  9.50090      6.16445        6.16821     
  9.68840      6.16288        6.16794     
  9.87591      6.16445        6.16724     
  10.06342     6.15990        6.16611     
  10.25093     6.15828        6.16460     
  10.43843     6.16443        6.16272     
  10.62594     6.15665        6.16049     
  10.81345     6.15665        6.15795     
  11.00095     6.15280        6.15510     
  11.18846     6.14884        6.15198     
  11.37597     6.14802        6.14859     
  11.56348     6.14104        6.14496     
  11.75098     6.13878        6.14111     
  11.93849     6.13324        6.13704     
  12.12600     6.12933        6.13279     
  12.31351     6.12543        6.12836     
  12.50101     6.12543        6.12378     
  12.68852     6.11763        6.11904     
  12.87603     6.11577        6.11417     
  13.06354     6.10667        6.10919     
  13.25104     6.10695        6.10409     
  13.43855     6.10202        6.09889     
  13.62606     6.09422        6.09361     
  13.81357     6.09304        6.08826     
  14.00107     6.07861        6.08283     
  14.18858     6.07861        6.07735     
  14.37609     6.07081        6.07182     
  14.56359     6.06301        6.06626     
  14.75110     6.05595        6.06066     
  14.93861     6.04740        6.05503     
  15.01271     6.05506        6.05280     
  15.88146     6.02710        6.02658     
  16.75021     6.00056        6.00057     
  17.61896     5.97542        5.97518     
  18.48771     5.95163        5.95071     
  19.35646     5.92917        5.92735     
  20.22521     5.90801        5.90525     
  21.09396     5.88810        5.88448     
  21.96271     5.86942        5.86508     
  22.83146     5.85194        5.84706     
  23.70021     5.83562        5.83040     
  24.56896     5.82042        5.81508     
  25.43772     5.80633        5.80104     
  26.30647     5.79329        5.78824     
  27.17522     5.78130        5.77662     
  28.04397     5.77004        5.76612     
  28.91272     5.75988        5.75668     
  29.78147     5.75116        5.74824     
  30.65022     5.74293        5.74073     
  31.51897     5.73562        5.73410     
  32.38772     5.72909        5.72829     
  33.25647     5.72358        5.72324     
  34.12522     5.71870        5.71891     
  34.99397     5.71433        5.71524     
  35.86272     5.71087        5.71219     
  36.73147     5.70818        5.70970     
  37.60022     5.70611        5.70775     
  38.46897     5.70412        5.70628     
  39.33772     5.70304        5.70527     
  40.20647     5.70193        5.70467     
  41.07522     5.70155        5.70445     
  41.94397     5.70180        5.70459     
  42.81273     5.70253        5.70505     
  43.68147     5.70344        5.70581     
  44.55022     5.70500        5.70684     
  45.41898     5.70677        5.70812     
  46.28773     5.70869        5.70963     
  47.15648     5.71079        5.71134     
  48.02523     5.71326        5.71325     
  48.89398     5.71558        5.71532     
  49.76273     5.71804        5.71755     
  50.63148     5.72072        5.71991     
  51.50023     5.72328        5.72240     
  52.36898     5.72593        5.72500     
  53.23773     5.72813        5.72770     
  54.10648     5.73091        5.73049     
  54.97523     5.73346        5.73336     
  55.84398     5.73612        5.73630     
  56.71273     5.73862        5.73929     
  57.58148     5.74119        5.74234     
  58.45023     5.74398        5.74542     
  59.31898     5.74696        5.74855     
  60.18773     5.75003        5.75170     
  61.05648     5.75291        5.75488     
  61.92523     5.75600        5.75807     
  62.79398     5.75910        5.76127     
  63.66273     5.76233        5.76449     
  64.53149     5.76575        5.76770     
  65.40024     5.76919        5.77091     
  66.26898     5.77264        5.77412     
  67.13773     5.77607        5.77732     
  68.00648     5.77946        5.78051     
  68.87524     5.78280        5.78368     
  69.74399     5.78607        5.78683     
  70.61274     5.78925        5.78996     
  71.48149     5.79231        5.79307     
  72.35023     5.79524        5.79616     
  73.21899     5.79803        5.79922     
  74.08774     5.80064        5.80225     
  74.95649     5.80307        5.80525     
  75.02496     5.80338        5.80549     
  77.56081     5.81299        5.81406     
  80.09666     5.82213        5.82234     
  82.63251     5.83083        5.83030     
  85.16835     5.83909        5.83793     
  87.70420     5.84691        5.84523     
  90.24005     5.85432        5.85218     
  92.77589     5.86131        5.85879     
  95.31174     5.86790        5.86507     
  97.84760     5.87410        5.87101     
  100.38344    5.87992        5.87662     
  102.91929    5.88537        5.88191     
  105.45514    5.89045        5.88689     
  107.99098    5.89518        5.89156     
  110.52683    5.89975        5.89594     
  113.06268    5.90386        5.90004     
  115.59853    5.90726        5.90386     
  118.13438    5.91033        5.90742     
  120.67023    5.91357        5.91073     
  123.20608    5.91608        5.91380     
  125.74192    5.91884        5.91663     
  128.27777    5.92123        5.91924     
  130.81361    5.92259        5.92164     
  133.34947    5.92510        5.92384     
  135.88531    5.92790        5.92584     
  138.42116    5.93000        5.92766     
  140.95702    5.93115        5.92930     
  143.49286    5.93164        5.93077     
  146.02870    5.93320        5.93208     
  148.56456    5.93481        5.93324     
  151.10040    5.93566        5.93425     
  153.63625    5.93528        5.93513     
  156.17210    5.93460        5.93587     
  158.70795    5.93517        5.93648     
  161.24379    5.93565        5.93698     
  163.77965    5.93585        5.93736     
  166.31549    5.93554        5.93763     
  168.85133    5.93555        5.93780     
  171.38719    5.93494        5.93787     
  173.92303    5.93456        5.93784     
  176.45888    5.93411        5.93773     
  178.99474    5.93312        5.93753     
  181.53058    5.93303        5.93725     
  184.06642    5.93268        5.93690     
  186.60228    5.93233        5.93647     
  189.13812    5.93214        5.93597     
  191.67398    5.93101        5.93540     
  194.20982    5.93094        5.93477     
  196.74567    5.93093        5.93408     
  199.28152    5.93198        5.93333     
  201.81737    5.93141        5.93253     
  204.35321    5.93121        5.93168     
  206.88907    5.93046        5.93078     
  209.42491    5.92928        5.92983     
  211.96075    5.92984        5.92883     
  214.49661    5.92802        5.92780     
  217.03246    5.92610        5.92672     
  219.56830    5.92477        5.92560     
  222.10416    5.92345        5.92445     
  224.64000    5.92217        5.92326     
  227.17584    5.92097        5.92204     
  229.71170    5.91988        5.92079     
  232.24754    5.91892        5.91950     
  234.78339    5.91812        5.91819     
  237.31924    5.91752        5.91685     
  239.85509    5.91715        5.91549     
  242.39093    5.91703        5.91409     
  244.92679    5.91719        5.91268     
  247.46263    5.91766        5.91124     
  249.99847    5.91848        5.90978     
